# Thermal Project data
# T (K)   delta C_p (R)
500.04	-0.0144685
500.12	-0.0133785
500.21	-0.0145685
500.29	-0.0144885
500.37	-0.0139885
500.46	-0.0137485
500.54	-0.0140885
500.63	-0.0140985
500.71	-0.0141885
500.79	-0.0154685
500.88	-0.0147185
500.96	-0.0139585
501.04	-0.0137985
501.12	-0.0129585
501.21	-0.0137285
501.29	-0.0146685
501.37	-0.0148385
501.46	-0.0151085
501.54	-0.0148585
501.63	-0.0138485
501.71	-0.0137685
501.79	-0.0148785
501.88	-0.0142085
501.96	-0.0146385
502.05	-0.0159185
502.13	-0.0154185
502.21	-0.0154285
502.29	-0.0153485
502.38	-0.0155285
502.46	-0.0155285
502.54	-0.0137585
502.63	-0.0135985
502.71	-0.0141185
502.79	-0.0144585
502.88	-0.0146385
502.96	-0.0150685
503.05	-0.0154985
503.13	-0.0151685
503.22	-0.0169585
503.29	-0.0182285
503.38	-0.0164585
503.46	-0.0138485
503.54	-0.0133485
503.63	-0.0152185
503.71	-0.0158185
503.8	-0.0154785
503.88	-0.0164185
503.96	-0.0167685
504.05	-0.0178785
504.13	-0.0186485
504.22	-0.0172085
504.3	-0.0181485
504.38	-0.0197685
504.47	-0.0206185
504.55	-0.0188485
504.63	-0.0174185
504.72	-0.0163285
504.8	-0.0170985
504.88	-0.0190485
504.97	-0.0193985
505.05	-0.0188085
505.13	-0.0172085
505.22	-0.0184885
505.3	-0.0203585
505.38	-0.0195185
505.47	-0.0185985
505.55	-0.0167385
505.64	-0.0158985
505.72	-0.0158285
505.8	-0.0165885
505.88	-0.0161785
505.97	-0.0150885
506.05	-0.0140785
506.13	-0.0138285
506.22	-0.0133285
506.3	-0.0131685
506.39	-0.0126685
506.47	-0.0140285
506.56	-0.0217385
506.64	-0.0221685
506.72	-0.0180285
506.81	-0.0138885
506.88	-0.0137285
506.97	-0.0139085
507.05	-0.0132385
507.14	-0.0136685
507.22	-0.0132485
507.3	-0.0132585
507.39	-0.0141985
507.47	-0.0145385
507.55	-0.0145485
507.64	-0.0140485
507.72	-0.0130385
507.8	-0.0124585
507.89	-0.0131385
507.97	-0.0144185
508.05	-0.0162885
508.13	-0.0174785
508.22	-0.0164685
508.3	-0.0145285
508.38	-0.0147885
508.47	-0.0147185
508.55	-0.0154885
508.64	-0.0165085
508.72	-0.0176985
508.8	-0.0187285
508.89	-0.0182185
508.97	-0.0168785
509.05	-0.0159485
509.14	-0.0183285
509.22	-0.0193485
509.3	-0.0207185
509.39	-0.0210585
509.47	-0.0196285
509.55	-0.0184485
509.63	-0.0175285
509.72	-0.0171985
509.8	-0.0178785
509.88	-0.0174685
509.97	-0.0165385
510.05	-0.0147685
510.14	-0.0136785
510.22	-0.0146185
510.31	-0.0149685
510.39	-0.0144685
510.47	-0.0142185
510.55	-0.0141385
510.63	-0.0123685
510.72	-0.0131385
510.8	-0.0146685
510.88	-0.0168785
510.96	-0.0155285
511.05	-0.0134185
511.13	-0.0124985
511.22	-0.0120885
511.3	-0.0121785
511.39	-0.0127785
511.47	-0.0131185
511.56	-0.0125385
511.64	-0.0127985
511.72	-0.0119585
511.8	-0.0108685
511.89	-0.0120585
511.97	-0.0118985
512.06	-0.0114785
512.14	-0.0113185
512.22	-0.0110685
512.31	-0.0109985
512.39	-0.0121885
512.47	-0.0133785
512.56	-0.0135585
512.64	-0.0133985
512.72	-0.0135685
512.81	-0.0123085
512.89	-0.0118085
512.97	-0.0111385
513.06	-0.0117385
513.14	-0.0128485
513.22	-0.0133585
513.31	-0.0133685
513.39	-0.0121885
513.47	-0.0109285
513.56	-0.0112785
513.64	-0.0122985
513.72	-0.0122285
513.81	-0.0107085
513.89	-0.0091885
513.97	-0.0098785
514.06	-0.0103085
514.14	-0.0114185
514.22	-0.0111685
514.31	-0.0102485
514.39	-0.0088985
514.48	-0.0094085
514.56	-0.0083185
514.64	-0.0089185
514.73	-0.0075785
514.81	-0.0061385
514.9	-0.0054685
514.98	-0.0053985
515.06	-0.0067585
515.14	-0.0072685
515.22	-0.0075385
515.31	-0.0078785
515.39	-0.0073785
515.47	-0.0064585
515.56	-0.0074785
515.64	-0.0094285
515.73	-0.0091885
515.81	-0.0102985
515.89	-0.0086085
515.97	-0.0067585
516.06	-0.0061685
516.14	-0.0060085
516.23	-0.0061885
516.31	-0.0061885
516.4	-0.0072985
516.47	-0.0069685
516.56	-0.0059585
516.64	-0.0062185
516.72	-0.0075885
516.81	-0.0086085
516.89	-0.0075985
516.98	-0.0052385
517.06	-0.0038085
517.14	-0.0051685
517.23	-0.0061085
517.31	-0.0059485
517.4	-0.0046785
517.48	-0.0051985
517.56	-0.0054585
517.64	-0.0056385
517.73	-0.0054685
517.81	-0.0059885
517.89	-0.0059085
517.97	-0.0058285
518.06	-0.0049085
518.14	-0.0047485
518.22	-0.0043285
518.31	-0.0050985
518.39	-0.0048585
518.48	-0.0033385
518.56	-0.0021585
518.65	-0.0022585
518.73	-0.0025185
518.81	-0.0022685
518.89	-0.0033785
518.98	-0.0051585
519.06	-0.0041485
519.14	-0.0024685
519.22	-0.0011185
519.31	-0.0012985
519.39	-0.0029985
519.48	-0.0037685
519.56	-0.0047085
519.64	-0.0053885
519.72	-0.0029385
519.81	-0.0012585
519.89	-0.0032985
519.98	-0.0052485
520.06	-0.0049185
520.14	-0.0032385
520.22	-0.0012085
520.31	-0.0023185
520.39	-0.0032585
520.48	-0.0035985
520.56	-0.0031885
520.64	-0.0024285
520.73	-0.0007485
520.81	-0.0008385
520.89	-0.0022885
520.98	-0.0019585
521.06	-0.0017085
521.14	-0.0016285
521.23	-0.0020585
521.31	-0.0017285
521.39	-0.0012285
521.47	-0.0012385
521.56	-0.0021785
521.64	-0.0039585
521.72	-0.0037185
521.81	-0.0025385
521.9	-0.0032185
521.98	-0.0028885
522.06	-0.0012885
522.14	-0.0013785
522.23	-0.0022385
522.31	-0.0009785
522.4	-0.0008985
522.47	-0.0016685
522.56	-0.0015085
522.64	-0.0015085
522.73	-0.0005885
522.81	-0.0015285
522.89	-0.0028085
522.98	-0.0028985
523.06	-0.0009585
523.15	0.0007315
523.23	0.0012315
523.31	0.0006315
523.4	0.0013815
523.48	0.0016315
523.57	0.0021315
523.65	0.0024615
523.73	0.0032115
523.81	0.0032115
523.89	0.0032815
523.98	0.0029415
524.06	0.0032715
524.14	0.0042815
524.23	0.0030015
524.31	0.0029915
524.4	0.0028215
524.48	0.0022215
524.56	0.0020415
524.65	0.0027915
524.73	0.0025315
524.81	0.0006615
524.89	0.0012515
524.97	0.0025115
525.06	0.0034315
525.15	0.0027515
525.23	0.0006215
525.31	-0.0013285
525.4	-0.0022685
525.48	-0.0004085
525.56	0.0019515
525.65	0.0012715
525.73	0.0008315
525.82	0.0002315
525.9	0.0001415
525.98	0.0008115
526.06	0.0023315
526.15	0.0013915
526.23	0.0007115
526.32	-0.0001485
526.4	-0.0003285
526.48	-0.0002485
526.57	0.0014415
526.65	0.0005815
526.73	0.0004115
526.82	0.0010815
526.9	0.0023415
526.98	0.0019115
527.06	0.0019815
527.15	0.0005415
527.23	0.0014615
527.31	0.0015415
527.4	0.0026315
527.48	0.0017815
527.56	0.0018615
527.65	0.0047315
527.73	0.0056515
527.81	0.0042015
527.9	0.0031015
527.98	0.0025815
528.06	0.0020615
528.15	0.0023115
528.23	0.0034015
528.32	0.0023015
528.39	0.0014415
528.48	0.0015215
528.56	0.0006715
528.65	0.0010015
528.73	0.0017515
528.81	0.0034415
528.9	0.0032615
528.98	0.0027415
529.06	0.0023115
529.15	0.0021415
529.23	0.0027215
529.32	0.0051715
529.4	0.0054215
529.48	0.0038815
529.56	0.0026915
529.64	0.0023515
529.73	0.0026815
529.81	0.0027515
529.89	0.0024915
529.98	3.15E-05
530.06	0.0005315
530.14	0.0019615
530.23	0.0018715
530.31	0.0006815
530.39	-0.0003385
530.48	0.0004915
530.56	0.0013315
530.64	0.0019215
530.73	0.0008115
530.81	-0.0017385
530.89	-0.0029285
530.98	-0.0013285
531.06	-0.0019285
531.14	-0.0024385
531.23	-0.0016885
531.31	-0.0011885
531.39	-0.0002585
531.48	0.0007415
531.56	0.0020115
531.65	0.0015715
531.73	0.0030915
531.81	0.0038415
531.9	0.0031615
531.98	0.0042515
532.06	0.0043315
532.15	0.0038215
532.23	0.0051615
532.31	0.0070215
532.4	0.0073515
532.48	0.0059915
532.57	0.0064915
532.64	0.0063115
532.73	0.0061315
532.81	0.0057915
532.9	0.0056915
532.98	0.0051015
533.07	0.0046615
533.15	0.0053315
533.23	0.0066015
533.31	0.0053215
533.39	0.0046315
533.48	0.0057315
533.57	0.0073315
533.65	0.0065615
533.73	0.0072315
533.82	0.0082415
533.9	0.0071315
533.98	0.0072115
534.07	0.0075415
534.15	0.0093915
534.24	0.0097215
534.32	0.0099715
534.4	0.0091115
534.48	0.0070815
534.57	0.0061415
534.65	0.0073215
534.73	0.0079815
534.82	0.0081515
534.9	0.0063615
534.98	0.0033115
535.07	0.0028815
535.15	0.0044815
535.23	0.0048915
535.32	0.0052215
535.4	0.0061515
535.48	0.0073215
535.56	0.0079115
535.65	0.0071415
535.73	0.0078115
535.81	0.0063615
535.9	0.0048315
535.98	0.0071115
536.07	0.0088815
536.15	0.0087015
536.23	0.0097115
536.31	0.0096215
536.4	0.0097015
536.48	0.0092715
536.57	0.0080715
536.65	0.0084915
536.73	0.0086515
536.81	0.0099115
536.9	0.0112615
536.98	0.0111715
537.07	0.0111615
537.15	0.0115815
537.23	0.0101315
537.31	0.0105515
537.4	0.0102915
537.48	0.0091815
537.57	0.0099315
537.65	0.0126315
537.73	0.0130515
537.82	0.0116015
537.9	0.0122715
537.98	0.0104915
538.07	0.0092915
538.15	0.0095415
538.23	0.0080915
538.31	0.0083415
538.4	0.0085015
538.48	0.0083315
538.56	0.0087415
538.65	0.0067915
538.73	0.0075415
538.82	0.0080415
538.9	0.0074415
538.98	0.0075215
539.06	0.0081015
539.14	0.0070815
539.23	0.0069015
539.31	0.0080015
539.4	0.0090915
539.48	0.0086615
539.56	0.0074715
539.65	0.0071215
539.73	0.0089815
539.8	0.0099015
539.89	0.0109115
539.98	0.0115815
540.06	0.0099615
540.14	0.0113915
540.23	0.0129915
540.31	0.0131615
540.39	0.0024015
540.47	-0.0021785
540.56	0.0026415
540.64	0.0092315
540.72	0.0101615
540.81	0.0093915
540.89	0.0106515
540.98	0.0121715
541.06	0.0130015
541.15	0.0130015
541.23	0.0121415
541.32	0.0102715
541.4	0.0074715
541.49	0.0062815
541.56	0.0075415
541.65	0.0072815
541.73	0.0064315
541.81	0.0076915
541.9	0.0078515
541.98	0.0067415
542.07	0.0077515
542.15	0.0091015
542.23	0.0106115
542.32	0.0107815
542.4	0.0106815
542.48	0.0103415
542.57	0.0099915
542.65	0.0095615
542.73	0.0096415
542.82	0.0099715
542.9	0.0107215
542.98	0.0119015
543.07	0.0134215
543.15	0.0134915
543.24	0.0123915
543.32	0.0103515
543.4	0.0106815
543.49	0.0114315
543.57	0.0122715
543.65	0.0117615
543.74	0.0120915
543.82	0.0132715
543.9	0.0132615
543.99	0.0124915
544.07	0.0142615
544.15	0.0137415
544.23	0.0131415
544.32	0.0133915
544.4	0.0148215
544.49	0.0141415
544.57	0.0150615
544.65	0.0168315
544.74	0.0179215
544.82	0.0186815
544.9	0.0191815
544.99	0.0182415
545.07	0.0177215
545.15	0.0206815
545.24	0.0205015
545.32	0.0191415
545.4	0.0187115
545.49	0.0192115
545.57	0.0195415
545.65	0.0178415
545.74	0.0175815
545.82	0.0178315
545.91	0.0191715
545.99	0.0212815
546.07	0.0236415
546.16	0.0237215
546.24	0.0238815
546.32	0.0252315
546.4	0.0248815
546.49	0.0246215
546.57	0.0254615
546.65	0.0256215
546.74	0.0248515
546.82	0.0242515
546.91	0.0226415
546.99	0.0215315
547.07	0.0231315
547.15	0.0249815
547.24	0.0246415
547.32	0.0233615
547.41	0.0242015
547.49	0.0211515
547.57	0.0208915
547.66	0.0223215
547.74	0.0218915
547.82	0.0216215
547.91	0.0200115
547.99	0.0196615
548.07	0.0200815
548.15	0.0204915
548.24	0.0220115
548.32	0.0220015
548.41	0.0222515
548.49	0.0234315
548.57	0.0230015
548.66	0.0239215
548.74	0.0257715
548.82	0.0260215
548.9	0.0255115
548.98	0.0252415
549.07	0.0277815
549.15	0.0282815
549.23	0.0277615
549.32	0.0296215
549.41	0.0292715
549.49	0.0286715
549.57	0.0307815
549.65	0.0301815
549.74	0.0284815
549.82	0.0287215
549.9	0.0302415
549.98	0.0303215
550.07	0.0300615
550.15	0.0288615
550.24	0.0264015
550.32	0.0258015
550.4	0.0263915
550.49	0.0266315
550.57	0.0256915
550.65	0.0250915
550.74	0.0257615
550.82	0.0265215
550.91	0.0266815
550.99	0.0275215
551.07	0.0275115
551.15	0.0260715
551.24	0.0257215
551.32	0.0258015
551.41	0.0265515
551.49	0.0294215
551.57	0.0309415
551.66	0.0300015
551.74	0.0286415
551.82	0.0261815
551.91	0.0260815
551.99	0.0274315
552.07	0.0296215
552.16	0.0293615
552.24	0.0296115
552.32	0.0300215
552.4	0.0316215
552.49	0.0314515
552.57	0.0305915
552.65	0.0317715
552.74	0.0321915
552.82	0.0314215
552.9	0.0320015
552.99	0.0348715
553.07	0.0357115
553.16	0.0354515
553.24	0.0360315
553.32	0.0350115
553.41	0.0343315
553.49	0.0359315
553.57	0.0363415
553.66	0.0352415
553.74	0.0362415
553.82	0.0381815
553.91	0.0389415
553.99	0.0388415
554.07	0.0381615
554.16	0.0371415
554.24	0.0367115
554.33	0.0378815
554.41	0.0399115
554.49	0.0396515
554.57	0.0397215
554.65	0.0403115
554.74	0.0400515
554.82	0.0403815
554.9	0.0417315
554.99	0.0425615
555.07	0.0413715
555.15	0.0419615
555.24	0.0419515
555.32	0.0421115
555.41	0.0419315
555.49	0.0432015
555.57	0.0426015
555.66	0.0431815
555.74	0.0421615
555.82	0.0422415
555.9	0.0438415
555.99	0.0445915
556.07	0.0446715
556.16	0.0444115
556.24	0.0435515
556.32	0.0446515
556.41	0.0450615
556.49	0.0441215
556.57	0.0433515
556.66	0.0451215
556.74	0.0481615
556.83	0.0494215
556.91	0.0483215
556.99	0.0477215
557.07	0.0476215
557.15	0.0482115
557.24	0.0506615
557.32	0.0511615
557.4	0.0511515
557.49	0.0528415
557.57	0.0525715
557.66	0.0540015
557.74	0.0556915
557.82	0.0552615
557.91	0.0542415
557.99	0.0535515
558.07	0.0525315
558.16	0.0521015
558.24	0.0540415
558.32	0.0547115
558.41	0.0544515
558.49	0.0555415
558.57	0.0583215
558.65	0.0581515
558.74	0.0554315
558.82	0.0522915
558.91	0.0526215
558.99	0.0551515
559.07	0.0557415
559.16	0.0555615
559.24	0.0564015
559.32	0.0578315
559.41	0.0579115
559.49	0.0587515
559.57	0.0582315
559.65	0.0584815
559.74	0.0596615
559.82	0.0601615
559.9	0.0617615
559.99	0.0619215
560.07	0.0614115
560.16	0.0609715
560.24	0.0619015
560.32	0.0622315
560.4	0.0625615
560.49	0.0623815
560.57	0.0624615
560.66	0.0627015
560.74	0.0652415
560.82	0.0655715
560.91	0.0651415
560.99	0.0669115
561.07	0.0683415
561.16	0.0684215
561.24	0.0677315
561.32	0.0679815
561.41	0.0687315
561.49	0.0691515
561.57	0.0709215
561.66	0.0720115
561.74	0.0723415
561.82	0.0755515
561.9	0.0779115
561.99	0.0790915
562.07	0.0794215
562.16	0.0784815
562.24	0.0784815
562.32	0.0775415
562.41	0.0793115
562.49	0.0814215
562.58	0.0808215
562.66	0.0797115
562.74	0.0797915
562.83	0.0811315
562.91	0.0838315
562.99	0.0844215
563.07	0.0848315
563.16	0.0839015
563.24	0.0838015
563.32	0.0850615
563.41	0.0857315
563.49	0.0866615
563.57	0.0871615
563.66	0.0867315
563.74	0.0890915
563.82	0.0906115
563.91	0.0918715
563.99	0.0927115
564.07	0.0934615
564.16	0.0932815
564.24	0.0920115
564.32	0.0982615
564.41	0.1066315
564.49	0.1082315
564.58	0.1048415
564.66	0.1038215
564.74	0.1027115
564.83	0.1032115
564.91	0.1034615
564.99	0.1034515
565.08	0.1052215
565.16	0.1075015
565.25	0.1067315
565.33	0.1064715
565.41	0.1066315
565.49	0.1066215
565.57	0.1078015
565.66	0.1094815
565.74	0.1128615
565.82	0.1136215
565.91	0.1145415
565.99	0.1172415
566.07	0.1167215
566.16	0.1166315
566.24	0.1173015
566.33	0.1190715
566.41	0.1205915
566.5	0.1229515
566.58	0.1240415
566.66	0.1248815
566.74	0.1236015
566.82	0.1242715
566.91	0.1262115
566.99	0.1270515
567.08	0.1275515
567.16	0.1273815
567.24	0.1272815
567.33	0.1279515
567.41	0.1286215
567.49	0.1279415
567.58	0.1264115
567.66	0.1246215
567.74	0.1255515
567.82	0.1267215
567.91	0.1272215
567.99	0.1284915
568.07	0.1294115
568.16	0.1306715
568.24	0.1348115
568.32	0.1360715
568.41	0.1359815
568.49	0.1374115
568.57	0.1382515
568.66	0.1382415
568.74	0.1401815
568.83	0.1424615
568.91	0.1433815
568.99	0.1439715
569.07	0.1458215
569.16	0.1465815
569.24	0.1459815
569.32	0.1474115
569.4	0.1487615
569.49	0.1485815
569.57	0.1500115
569.66	0.1501715
569.74	0.1511815
569.82	0.1534615
569.91	0.1569215
569.99	0.1601315
570.08	0.1598715
570.16	0.1621415
570.24	0.1636615
570.32	0.1627215
570.41	0.1620415
570.49	0.1616915
570.57	0.1616015
570.66	0.1628615
570.74	0.1628515
570.83	0.1646215
570.91	0.1660515
570.99	0.1680815
571.07	0.1694315
571.16	0.1700115
571.25	0.1706015
571.33	0.1704215
571.41	0.1721915
571.49	0.1759915
571.58	0.1793715
571.66	0.1799515
571.74	0.1777415
571.83	0.1789215
571.91	0.1794215
571.99	0.1799215
572.08	0.1815215
572.16	0.1829515
572.25	0.1843015
572.33	0.1865815
572.41	0.1903815
572.49	0.1924015
572.58	0.1914615
572.66	0.1923915
572.74	0.1927215
572.83	0.1929715
572.91	0.1932115
573	0.1951515
573.08	0.1965015
573.16	0.1987715
573.25	0.2015615
573.33	0.2029115
573.41	0.2040815
573.5	0.2057715
573.58	0.2070315
573.66	0.2080415
573.74	0.2087115
573.82	0.2098015
573.91	0.2112315
573.99	0.2108915
574.07	0.2108015
574.16	0.2136615
574.24	0.2162015
574.33	0.2198315
574.41	0.2228715
574.49	0.2231115
574.58	0.2251415
574.66	0.2263115
574.75	0.2280015
574.83	0.2301915
574.91	0.2304415
574.99	0.2308615
575.07	0.2311915
575.16	0.2326215
575.24	0.2348115
575.33	0.2347215
575.41	0.2351315
575.49	0.2375015
575.58	0.2385915
575.66	0.2391715
575.75	0.2410315
575.83	0.2439015
575.91	0.2456715
576	0.2475215
576.08	0.2486115
576.16	0.2486915
576.24	0.2487715
576.32	0.2504615
576.41	0.2540915
576.49	0.2561115
576.58	0.2569515
576.66	0.2582115
576.74	0.2576115
576.83	0.2598015
576.91	0.2627615
576.99	0.2629215
577.08	0.2620715
577.16	0.2620615
577.24	0.2627315
577.33	0.2639915
577.41	0.2662715
577.49	0.2660915
577.57	0.2673515
577.66	0.2688715
577.74	0.2698815
577.82	0.2715615
577.91	0.2733315
577.99	0.2742615
578.07	0.2777215
578.16	0.2844815
578.24	0.2897215
578.33	0.2909015
578.41	0.2896215
578.49	0.2898715
578.57	0.2917215
578.65	0.2919715
578.74	0.2933215
578.82	0.2950915
578.91	0.2967715
578.99	0.2977015
579.07	0.2980315
579.16	0.3005615
579.24	0.3028415
579.32	0.3032515
579.41	0.3040915
579.49	0.3056915
579.57	0.3072915
579.66	0.3101615
579.74	0.3106615
579.82	0.3112515
579.91	0.3135215
579.99	0.3166515
580.07	0.3170615
580.16	0.3195115
580.24	0.3219615
580.32	0.3228015
580.41	0.3221115
580.49	0.3236315
580.58	0.3254015
580.66	0.3266615
580.74	0.3291915
580.83	0.3294415
580.91	0.3297715
580.99	0.3334815
581.07	0.3363515
581.16	0.3364315
581.24	0.3360015
581.33	0.3367515
581.41	0.3373415
581.5	0.3372515
581.58	0.3388515
581.66	0.3428215
581.75	0.3441615
581.83	0.3456815
581.91	0.3469415
582	0.3484615
582.08	0.3498915
582.16	0.3524215
582.24	0.3537715
582.32	0.3549515
582.41	0.3571415
582.49	0.3605215
582.58	0.3615215
582.66	0.3633815
582.74	0.3661615
582.83	0.3695415
582.91	0.3706315
582.99	0.3718115
583.08	0.3722315
583.16	0.3740815
583.25	0.3776315
583.33	0.3801615
583.41	0.3804915
583.49	0.3842115
583.57	0.3875915
583.66	0.3891015
583.74	0.3913815
583.83	0.3924715
583.91	0.3950015
584	0.3962615
584.08	0.3981215
584.16	0.4003115
584.25	0.4019115
584.33	0.4052115
584.42	0.4092615
584.5	0.4101015
584.58	0.4117915
584.66	0.4148215
584.74	0.4157515
584.83	0.4169315
584.91	0.4205615
584.99	0.4258015
585.08	0.4251115
585.16	0.4231615
585.24	0.4238315
585.33	0.4263615
585.41	0.4289715
585.49	0.4320115
585.58	0.4346315
585.66	0.4359815
585.74	0.4352115
585.82	0.4365515
585.91	0.4381515
585.99	0.4438215
586.08	0.4489715
586.16	0.4509115
586.25	0.4526815
586.33	0.4538615
586.41	0.4554615
586.5	0.4577415
586.58	0.4601015
586.66	0.4637315
586.75	0.4655915
586.83	0.4665915
586.91	0.4666715
586.99	0.4691215
587.07	0.4719915
587.16	0.4756215
587.24	0.4766315
587.33	0.4795815
587.41	0.4835515
587.49	0.4859115
587.58	0.4867515
587.66	0.4889515
587.74	0.4897815
587.83	0.4897815
587.91	0.4921415
587.99	0.4954315
588.08	0.4974615
588.16	0.5000715
588.24	0.5019315
588.32	0.5017515
588.41	0.5024215
588.49	0.5041015
588.58	0.5066415
588.66	0.5084115
588.74	0.5116115
588.82	0.5144815
588.91	0.5165915
588.99	0.5193815
589.07	0.5227615
589.16	0.5270715
589.24	0.5296815
589.32	0.5317915
589.41	0.5345815
589.49	0.5368515
589.57	0.5374415
589.66	0.5449615
589.74	0.5480915
589.83	0.5481615
589.91	0.5483215
589.99	0.5477215
590.08	0.5491615
590.16	0.5521115
590.25	0.5552315
590.33	0.5580215
590.41	0.5595415
590.49	0.5613915
590.57	0.5637515
590.66	0.5653515
590.74	0.5682215
590.83	0.5712615
590.91	0.5709215
590.99	0.5711615
591.08	0.5750515
591.16	0.5769915
591.24	0.5780015
591.33	0.5817115
591.41	0.5872915
591.5	0.5915115
591.58	0.5936215
591.66	0.5952215
591.74	0.5969115
591.83	0.5974115
591.91	0.6023115
592	0.6066215
592.08	0.6078015
592.16	0.6102415
592.25	0.6125215
592.33	0.6154715
592.41	0.6169915
592.5	0.6200315
592.58	0.6226515
592.66	0.6259415
592.75	0.6290615
592.83	0.6289715
592.91	0.6302315
593	0.6370815
593.08	0.6412215
593.16	0.6420615
593.25	0.6435715
593.33	0.6458515
593.41	0.6470315
593.5	0.6505815
593.58	0.6559015
593.67	0.6558115
593.75	0.6556315
593.83	0.6567215
593.91	0.6583215
594	0.6616215
594.08	0.6656715
594.16	0.6686315
594.25	0.6702315
594.33	0.6731815
594.41	0.6763115
594.5	0.6775715
594.58	0.6779015
594.66	0.6792515
594.75	0.6834715
594.83	0.6861715
594.92	0.6885315
595	0.6904715
595.08	0.6931715
595.17	0.6966415
595.25	0.6999315
595.33	0.7030515
595.41	0.7043115
595.49	0.7058315
595.58	0.7065915
595.66	0.7103015
595.75	0.7144415
595.83	0.7177315
595.91	0.7184915
596	0.7217815
596.08	0.7253315
596.16	0.7274415
596.25	0.7283615
596.33	0.7318215
596.42	0.7366415
596.5	0.7388315
596.58	0.7406015
596.66	0.7437315
596.74	0.7463415
596.83	0.7493015
596.91	0.7512315
596.99	0.7524115
597.08	0.7557915
597.16	0.7611115
597.24	0.7661015
597.33	0.7678715
597.41	0.7701515
597.5	0.7720915
597.58	0.7731015
597.66	0.7753715
597.74	0.7794315
597.83	0.7807715
597.91	0.7817815
597.99	0.7833015
598.08	0.7843115
598.16	0.7886215
598.24	0.7939415
598.33	0.7956215
598.41	0.7971415
598.49	0.8000915
598.58	0.8028815
598.66	0.8051615
598.74	0.8087015
598.83	0.8112415
598.91	0.8141115
598.99	0.8169815
599.07	0.8202715
599.16	0.8207715
599.24	0.8200015
599.32	0.8206715
599.41	0.8242215
599.49	0.8280215
599.58	0.8297015
599.66	0.8311315
599.74	0.8360415
599.83	0.8400115
599.91	0.8449115
599.99	0.8498115
600.07	0.8509915
600.16	0.8532615
600.24	0.8571515
600.32	0.8615415
600.41	0.8640715
600.49	0.8657615
600.58	0.8693915
600.66	0.8745415
600.75	0.8766515
600.83	0.8777515
600.91	0.8768115
601	0.8793415
601.08	0.8834815
601.16	0.8867715
601.24	0.8895615
601.33	0.8915815
601.41	0.8954715
601.49	0.8989315
601.58	0.9010415
601.66	0.9021315
601.75	0.9041515
601.83	0.9074515
601.91	0.9123515
601.99	0.9164915
602.08	0.9203715
602.16	0.9213815
602.25	0.9225615
602.33	0.9244115
602.41	0.9270315
602.49	0.9299015
602.58	0.9320115
602.66	0.9353815
602.75	0.9407915
602.83	0.9442615
602.91	0.9458615
603	0.9459315
603.08	0.9481315
603.16	0.9518415
603.25	0.9558115
603.33	0.9608815
603.41	0.9639215
603.5	0.9672215
603.58	0.9683915
603.66	0.9709215
603.75	0.9744715
603.83	0.9792915
603.91	0.9830015
603.99	0.9847715
604.08	0.9861215
604.16	0.9896715
604.25	0.9928815
604.33	0.9964215
604.41	1.0025915
604.5	1.0069015
604.58	1.0080015
604.66	1.0101915
604.75	1.0134015
604.83	1.0160115
604.91	1.0176115
604.99	1.0205715
605.07	1.0231815
605.16	1.0258815
605.24	1.0303615
605.33	1.0336615
605.41	1.0365315
605.49	1.0387215
605.58	1.0421815
605.66	1.0451415
605.74	1.0487715
605.83	1.0518115
605.91	1.0557815
606	1.0573815
606.08	1.0594915
606.16	1.0631215
606.24	1.0675115
606.32	1.0718215
606.41	1.0747715
606.49	1.0756115
606.58	1.0775515
606.66	1.0815215
606.74	1.0842215
606.83	1.0859115
606.91	1.0881015
606.99	1.0889415
607.08	1.0930815
607.16	1.0972215
607.24	1.0983115
607.32	1.1001715
607.41	1.1044815
607.49	1.1076015
607.57	1.1096215
607.66	1.1124915
607.74	1.1137615
607.82	1.1151015
607.91	1.1169615
607.99	1.1189815
608.07	1.1227815
608.16	1.1257315
608.24	1.1291115
608.32	1.1328315
608.4	1.1357815
608.49	1.1397515
608.57	1.1443215
608.66	1.1486315
608.74	1.1504815
608.82	1.1538615
608.91	1.1594415
608.99	1.1648415
609.07	1.1676315
609.16	1.1672015
609.24	1.1685515
609.32	1.1707415
609.41	1.1721715
609.49	1.1747015
609.57	1.1779115
609.66	1.1817115
609.74	1.1850015
609.82	1.1882115
609.91	1.1903215
609.99	1.1926015
610.07	1.1959815
610.16	1.1986815
610.24	1.2011215
610.32	1.2014615
610.41	1.2035615
610.49	1.2053315
610.57	1.2064315
610.66	1.2115815
610.74	1.2157215
610.82	1.2180015
610.91	1.2183315
610.99	1.2190015
611.07	1.2231415
611.15	1.2267715
611.24	1.2301515
611.32	1.2358115
611.41	1.2385115
611.49	1.2391815
611.57	1.2425615
611.66	1.2447515
611.75	1.2466915
611.83	1.2477815
611.91	1.2516715
611.99	1.2564015
612.07	1.2593615
612.16	1.2609615
612.24	1.2644215
612.32	1.2697415
612.41	1.2721015
612.49	1.2739615
612.57	1.2764915
612.66	1.2784315
612.74	1.2831615
612.83	1.2847615
612.91	1.2871215
612.99	1.2926215
613.08	1.2974315
613.16	1.3018315
613.24	1.3060515
613.32	1.3089215
613.41	1.3091715
613.49	1.3094115
613.57	1.3111015
613.66	1.3138015
613.74	1.3168415
613.82	1.3176815
613.91	1.3188615
613.99	1.3210515
614.08	1.3234115
614.16	1.3261115
614.24	1.3302515
614.33	1.3322715
614.41	1.3360815
614.49	1.3380115
614.57	1.3398715
614.66	1.3435815
614.74	1.3475615
614.82	1.3501715
614.91	1.3529615
614.99	1.3565915
615.07	1.3563315
615.16	1.3576715
615.24	1.3593615
615.32	1.3610415
615.41	1.3626415
615.49	1.3653515
615.57	1.3698215
615.65	1.3734615
615.73	1.3763215
615.82	1.3792015
615.9	1.3795315
615.99	1.3796015
616.07	1.3823915
616.15	1.3855115
616.24	1.3847415
616.32	1.3849115
616.41	1.3904015
616.49	1.3950515
616.57	1.3981715
616.66	1.4004515
616.74	1.4036615
616.82	1.4065315
616.9	1.4088915
616.99	1.4099015
617.07	1.4155615
617.15	1.4185115
617.24	1.4209615
617.32	1.4253515
617.41	1.4262815
617.49	1.4287215
617.57	1.4299015
617.66	1.4306615
617.74	1.4353015
617.82	1.4397815
617.91	1.4404515
617.99	1.4412915
618.07	1.4419615
618.15	1.4445815
618.24	1.4463515
618.32	1.4482815
618.4	1.4490415
618.49	1.4519115
618.57	1.4561315
618.66	1.4590015
618.74	1.4604315
618.82	1.4602615
618.91	1.4628715
618.99	1.4660815
619.07	1.4668415
619.16	1.4659015
619.24	1.4665715
619.32	1.4670715
619.4	1.4711215
619.49	1.4762815
619.57	1.4795715
619.66	1.4805815
619.74	1.4810815
619.82	1.4810715
619.91	1.4825015
619.99	1.4849515
620.08	1.4860415
620.16	1.4857015
620.24	1.4888215
620.33	1.4916915
620.41	1.4939715
620.49	1.4951415
620.57	1.4948015
620.66	1.4951315
620.74	1.4963915
620.82	1.4985815
620.91	1.4992515
620.99	1.5029715
621.08	1.5075315
621.16	1.5086315
621.24	1.5068415
621.33	1.5056515
621.41	1.5076715
621.49	1.5108815
621.57	1.5141715
621.66	1.5159415
621.74	1.5151715
621.82	1.5160115
621.91	1.5193915
621.99	1.5222615
622.08	1.5237815
622.16	1.5267315
622.24	1.5282515
622.33	1.5309515
622.41	1.5333115
622.5	1.5361015
622.58	1.5381215
622.66	1.5383715
622.75	1.5414915
622.83	1.5419915
622.91	1.5420715
622.99	1.5412115
623.08	1.5439115
623.16	1.5469515
623.24	1.5510115
623.33	1.5511715
623.41	1.5531915
623.5	1.5531915
623.58	1.5555515
623.66	1.5581615
623.75	1.5569715
623.83	1.5568815
623.91	1.5578015
623.99	1.5601715
624.07	1.5624415
624.16	1.5658215
624.24	1.5661515
624.33	1.5675815
624.41	1.5700315
624.49	1.5685815
624.58	1.5659515
624.66	1.5678915
624.75	1.5693215
624.83	1.5699115
624.91	1.5689715
624.99	1.5704915
625.08	1.5715815
625.16	1.5734315
625.24	1.5770715
625.33	1.5801915
625.41	1.5809415
625.49	1.5828815
625.58	1.5836415
625.66	1.5854915
625.75	1.5870915
625.83	1.5908915
625.91	1.5894515
625.99	1.5882515
626.08	1.5904515
626.16	1.5923015
626.25	1.5922115
626.33	1.5939815
626.41	1.5971915
626.49	1.5987015
626.57	1.5986115
626.66	1.5988615
626.74	1.6008015
626.82	1.6022315
626.91	1.6017115
626.99	1.6017115
627.08	1.6012815
627.16	1.6033815
627.24	1.6054915
627.33	1.6077715
627.41	1.6083515
627.49	1.6076715
627.57	1.6069015
627.66	1.6068115
627.74	1.6077315
627.82	1.6070515
627.91	1.6089915
627.99	1.6099915
628.07	1.6114315
628.16	1.6118415
628.24	1.6120015
628.32	1.6134315
628.41	1.6126715
628.49	1.6127415
628.58	1.6155315
628.66	1.6170415
628.74	1.6173715
628.82	1.6163515
628.91	1.6171115
628.99	1.6139715
629.07	1.6136215
629.16	1.6157315
629.24	1.6168215
629.32	1.6174115
629.41	1.6164715
629.49	1.6138415
629.58	1.6155215
629.66	1.6171215
629.75	1.6182215
629.83	1.6197315
629.91	1.6215915
629.99	1.6250515
630.07	1.6275015
630.16	1.6266415
630.24	1.6296815
630.33	1.6289115
630.41	1.6284015
630.49	1.6277115
630.58	1.6257615
630.66	1.6235515
630.75	1.6249015
630.83	1.6276815
630.91	1.6271715
631	1.6272415
631.08	1.6289315
631.16	1.6296015
631.24	1.6269715
631.32	1.6273015
631.41	1.6305915
631.5	1.6338915
631.57	1.6343915
631.66	1.6354815
631.74	1.6368315
631.83	1.6377515
631.91	1.6374915
631.99	1.6365515
632.08	1.6384015
632.16	1.6389915
632.24	1.6394015
632.32	1.6400715
632.41	1.6423515
632.49	1.6443815
632.57	1.6447915
632.66	1.6441915
632.74	1.6474015
632.83	1.6495115
632.91	1.6490815
633	1.6498315
633.08	1.6511815
633.16	1.6507515
633.25	1.6505715
633.33	1.6527615
633.41	1.6545315
633.5	1.6554615
633.58	1.6557015
633.66	1.6548515
633.75	1.6565315
633.83	1.6522115
633.91	1.6561815
634	1.6636215
634.08	1.6653915
634.16	1.6645415
634.25	1.6647815
634.33	1.6658815
634.42	1.6668015
634.5	1.6696715
634.58	1.6711915
634.67	1.6703315
634.75	1.6704115
634.83	1.6717615
634.91	1.6744615
635	1.6759715
635.08	1.6756315
635.16	1.6773115
635.25	1.6778115
635.33	1.6780615
635.42	1.6783915
635.5	1.6797415
635.58	1.6810015
635.67	1.6803115
635.75	1.6796315
635.83	1.6805515
635.91	1.6819815
636	1.6847715
636.08	1.6850215
636.16	1.6856915
636.25	1.6865215
636.33	1.6872815
636.42	1.6873615
636.5	1.6886215
636.58	1.6880215
636.67	1.6930015
636.75	1.6949415
636.83	1.6946815
636.92	1.6954415
637	1.6969515
637.08	1.6980415
637.16	1.7004115
637.25	1.7031915
637.33	1.7059815
637.41	1.7079215
637.5	1.7093515
637.58	1.7096815
637.66	1.7084915
637.75	1.7089915
637.83	1.7116015
637.92	1.7126115
638	1.7141315
638.08	1.7151315
638.17	1.7141115
638.25	1.7143615
638.33	1.7178215
638.41	1.7196715
638.5	1.7208515
638.58	1.7222015
638.66	1.7232115
638.75	1.7229515
638.83	1.7253915
638.92	1.7302915
639	1.7323215
639.08	1.7353615
639.17	1.7348415
639.25	1.7359315
639.33	1.7347415
639.42	1.7372715
639.5	1.7424315
639.58	1.7446215
639.66	1.7458015
639.75	1.7478215
639.83	1.7479815
639.91	1.7489915
640	1.7504215
640.08	1.7516915
640.17	1.7530315
640.25	1.7561615
640.33	1.7580915
640.42	1.7568215
640.5	1.7577415
640.58	1.7600215
640.66	1.7624715
640.75	1.7649115
640.83	1.7646515
640.92	1.7655715
641	1.7687815
641.08	1.7714015
641.16	1.7715615
641.25	1.7729915
641.33	1.7756915
641.42	1.7761115
641.5	1.7776215
641.58	1.7795615
641.67	1.7832015
641.75	1.7847115
641.83	1.7853015
641.91	1.7880815
642	1.7903615
642.08	1.7945815
642.16	1.7994015
642.25	1.8015115
642.33	1.8009115
642.42	1.8006515
642.5	1.8014015
642.58	1.8064715
642.67	1.8121315
642.75	1.8149215
642.83	1.8161015
642.92	1.8166015
643	1.8202315
643.08	1.8232715
643.16	1.8263115
643.25	1.8307915
643.33	1.8345015
643.41	1.8367815
643.5	1.8393115
643.58	1.8416715
643.66	1.8432715
643.75	1.8457215
643.83	1.8487615
643.92	1.8530715
644	1.8559415
644.08	1.8566115
644.17	1.8563515
644.25	1.8570215
644.33	1.8617515
644.41	1.8697015
644.5	1.8749415
644.58	1.8770415
644.67	1.8809315
644.75	1.8862515
644.83	1.8892915
644.91	1.8903015
645	1.8920715
645.08	1.8929915
645.16	1.8926515
645.25	1.8956915
645.33	1.9004215
645.42	1.9050715
645.5	1.9079415
645.58	1.9108115
645.66	1.9098715
645.75	1.9110515
645.83	1.9129915
645.91	1.9160215
646	1.9198315
646.08	1.9245615
646.16	1.9285315
646.24	1.9314815
646.33	1.9343515
646.41	1.9399315
646.49	1.9446615
646.58	1.9482115
646.66	1.9520115
646.74	1.9562315
646.82	1.9591915
646.91	1.9651915
646.99	1.9692415
647.08	1.9726215
647.16	1.9784515
647.25	1.9834415
647.33	1.9865615
647.41	1.9883315
647.5	1.9918015
647.58	1.9956815
647.66	1.9982115
647.75	2.0012515
647.83	2.0050515
647.91	2.0105515
647.99	2.0140915
648.07	2.0160315
648.16	2.0201715
648.24	2.0262615
648.33	2.0301415
648.41	2.0318315
648.49	2.0360515
648.57	2.0421415
648.66	2.0434915
648.74	2.0459315
648.82	2.0505015
648.91	2.0560715
648.99	2.0625015
649.07	2.0670615
649.16	2.0719615
649.24	2.0755115
649.32	2.0793915
649.41	2.0847215
649.49	2.0894515
649.58	2.0903715
649.66	2.0926515
649.74	2.0988215
649.83	2.1037215
649.91	2.1070215
650	2.1106515
650.08	2.1173315
650.16	2.1224015
650.24	2.1270415
650.33	2.1327915
650.41	2.1366815
650.49	2.1399715
650.58	2.1452115
650.66	2.1513815
650.74	2.1521315
650.83	2.1560215
650.91	2.1601615
650.99	2.1634515
651.08	2.1676815
651.16	2.1730015
651.25	2.1803615
651.33	2.1875415
651.41	2.1921915
651.49	2.1955715
651.58	2.1983515
651.66	2.2065615
651.74	2.2184015
651.83	2.2252415
651.91	2.2307415
651.99	2.2344515
652.08	2.2379215
652.16	2.2434915
652.24	2.2510215
652.33	2.2589715
652.41	2.2653115
652.49	2.2719815
652.58	2.2740915
652.66	2.2770515
652.74	2.2849115
652.82	2.2917615
652.91	2.2977615
652.99	2.3046915
653.08	2.3112915
653.16	2.3165215
653.25	2.3216815
653.33	2.3317415
653.41	2.3418115
653.5	2.3492515
653.58	2.3564315
653.66	2.3615015
653.75	2.3672515
653.83	2.3741815
653.91	2.3836615
653.99	2.3910115
654.08	2.3968415
654.16	2.4009815
654.25	2.4081715
654.33	2.4140815
654.41	2.4229615
654.49	2.4308315
654.58	2.4370815
654.66	2.4454515
654.74	2.4545015
654.83	2.4624515
654.91	2.4694615
654.99	2.4774115
655.07	2.4858715
655.16	2.4952515
655.24	2.5025315
655.32	2.5088715
655.41	2.5174915
655.49	2.5268815
655.58	2.5391415
655.66	2.5514015
655.75	2.5592715
655.83	2.5670515
655.91	2.5766015
656	2.5839615
656.08	2.5926715
656.16	2.6045915
656.24	2.6149115
656.32	2.6219315
656.41	2.6319115
656.49	2.6405315
656.58	2.6506815
656.66	2.6644715
656.74	2.6766515
656.82	2.6845915
656.91	2.6929715
656.99	2.7043015
657.07	2.7152915
657.16	2.7264615
657.24	2.7404115
657.33	2.7525115
657.41	2.7635015
657.49	2.7732315
657.57	2.7850715
657.66	2.7984315
657.74	2.8127315
657.82	2.8262615
657.91	2.8348015
657.99	2.8417315
658.07	2.8529815
658.16	2.8671115
658.24	2.8821615
658.32	2.8956115
658.41	2.9105915
658.49	2.9232715
658.57	2.9362115
658.66	2.9500015
658.74	2.9611615
658.82	2.9732615
658.9	2.9897615
658.99	3.0037115
659.07	3.0193615
659.16	3.0353515
659.24	3.0481215
659.32	3.0613215
659.41	3.0774715
659.49	3.0932915
659.57	3.1081815
659.66	3.1228115
659.74	3.1414215
659.82	3.1623215
659.9	3.1810215
659.99	3.1977615
660.07	3.2151915
660.16	3.2320315
660.24	3.2526715
660.32	3.2717015
660.41	3.2883715
660.49	3.3080815
660.57	3.3290615
660.66	3.3510615
660.74	3.3721215
660.82	3.3942915
660.91	3.4143415
660.99	3.4321915
661.07	3.4538415
661.16	3.4765215
661.24	3.4988515
661.32	3.5210215
661.41	3.5441115
661.49	3.5683115
661.57	3.5928515
661.66	3.6173015
661.74	3.6412415
661.83	3.6656115
661.91	3.6926815
662	3.7205215
662.08	3.7453115
662.16	3.7695015
662.24	3.7978515
662.32	3.8266115
662.41	3.8535215
662.49	3.8844915
662.57	3.9157115
662.66	3.9446415
662.74	3.9751015
662.83	4.0053915
662.91	4.0364515
662.99	4.0709715
663.08	4.1069315
663.16	4.1407715
663.24	4.1752115
663.32	4.2095615
663.41	4.2451015
663.49	4.2825015
663.57	4.3202415
663.66	4.3600915
663.74	4.4008815
663.82	4.4402215
663.91	4.4824415
663.99	4.5275515
664.07	4.5715515
664.16	4.6166515
664.24	4.6611515
664.32	4.7027815
664.41	4.7492415
664.49	4.8011115
664.57	4.8496015
664.65	4.8990115
664.74	4.9503815
664.82	5.0008915
664.9	5.0531915
664.99	5.1064115
665.07	5.1632815
665.15	5.2193015
665.24	5.2780215
665.32	5.3361615
665.41	5.3966615
665.49	5.4624115
665.57	5.5277415
665.65	5.5921315
665.74	5.6581415
665.82	5.7264315
665.9	5.7993715
665.98	5.8713815
666.07	5.9428115
666.15	6.0156615
666.23	6.0938615
666.32	6.1731515
666.4	6.2532815
666.48	6.3349515
666.57	6.4171215
666.65	6.5018215
666.74	6.5938115
666.82	6.6878315
666.9	6.7761715
666.98	6.8640115
667.06	6.9549915
667.15	7.0496915
667.23	7.1536915
667.32	7.2606915
667.4	7.3677915
667.48	7.4778915
667.56	7.5880915
667.64	7.6982915
667.73	7.8126915
667.81	7.9303915
667.9	8.0530915
667.98	8.1759915
668.06	8.3012915
668.14	8.4275915
668.22	8.5600915
668.31	8.6972915
668.39	8.8377915
668.48	8.9796915
668.56	9.1249915
668.64	9.2749915
668.73	9.4260915
668.81	9.5763915
668.89	9.7304915
668.97	9.8902915
669.06	10.0512915
669.14	10.2159915
669.22	10.3870915
669.31	10.5589915
669.39	10.7288915
669.47	10.9060915
669.55	11.0843915
669.64	11.2576915
669.72	11.4364915
669.81	11.6233915
669.89	11.8146915
669.97	12.0066915
670.06	12.1994915
670.14	12.3893915
670.22	12.5798915
670.31	12.7757915
670.39	12.9697915
670.47	13.1635915
670.55	13.3571915
670.63	13.5536915
670.72	13.7507915
670.8	13.9458915
670.88	14.1368915
670.97	14.3292915
671.05	14.5181915
671.13	14.7070915
671.22	14.8920915
671.3	15.0748915
671.38	15.2555915
671.47	15.4318915
671.55	15.6003915
671.63	15.7643915
671.71	15.9201915
671.8	16.0682915
671.88	16.2120915
671.96	16.3527915
672.05	16.4808915
672.13	16.6038915
672.21	16.7188915
672.3	16.8196915
672.38	16.9126915
672.46	16.9946915
672.55	17.0668915
672.63	17.1261915
672.72	17.1737915
672.8	17.2102915
672.88	17.2328915
672.96	17.2422915
673.05	17.2383915
673.13	17.2189915
673.21	17.1838915
673.3	17.1372915
673.38	17.0743915
673.46	16.9917915
673.55	16.8981915
673.63	16.7887915
673.72	16.6591915
673.8	16.5160915
673.88	16.3583915
673.97	16.1780915
674.05	15.9852915
674.13	15.7749915
674.22	15.5490915
674.3	15.3022915
674.38	15.0431915
674.47	14.7668915
674.55	14.4749915
674.63	14.1678915
674.72	13.8436915
674.81	13.5033915
674.89	13.1486915
674.98	12.7790915
675.06	12.3945915
675.14	11.9960915
675.23	11.5899915
675.31	11.1771915
675.39	10.7525915
675.48	10.3181915
675.56	9.8757915
675.65	9.4275915
675.73	8.9808915
675.81	8.5336915
675.9	8.0804915
675.99	7.6283915
676.07	7.1812915
676.15	6.7430215
676.24	6.3111415
676.32	5.8886615
676.41	5.4776815
676.49	5.0805915
676.57	4.7000015
676.66	4.3342215
676.74	3.9859515
676.82	3.6537715
676.91	3.3435115
676.99	3.0540615
677.07	2.7819715
677.16	2.5294215
677.25	2.3004915
677.33	2.0941615
677.41	1.9075415
677.5	1.7357315
677.58	1.5798315
677.66	1.4434015
677.75	1.3235615
677.83	1.2185215
677.91	1.1248315
678	1.0446815
678.08	0.9748515
678.16	0.9160215
678.25	0.8668515
678.33	0.8256215
678.41	0.7901715
678.5	0.7607815
678.58	0.7320015
678.67	0.7049115
678.75	0.6866215
678.83	0.6735015
678.91	0.6671415
679	0.6608715
679.08	0.6542615
679.16	0.6493515
679.25	0.6463815
679.33	0.6428215
679.41	0.6390015
679.5	0.6353515
679.58	0.6289115
679.67	0.6217115
679.75	0.6184915
679.83	0.6214415
679.92	0.6234715
680	0.6240515
680.08	0.6226115
680.16	0.6187115
680.25	0.6192915
680.33	0.6225015
680.42	0.6337515
680.5	0.6386515
680.58	0.6349215
680.67	0.6287315
680.75	0.6217015
680.83	0.6161115
680.92	0.6136515
681	0.6100015
681.09	0.6089815
681.17	0.6117615
681.25	0.6143815
681.33	0.6136115
681.42	0.6134315
681.5	0.6101215
681.58	0.6112215
681.67	0.6112915
681.75	0.6071415
681.83	0.6008715
681.92	0.6001015
682	0.5988215
682.09	0.5965315
682.17	0.5962715
682.25	0.5951615
682.34	0.5965915
682.42	0.5987915
682.5	0.5984415
682.58	0.5991915
682.67	0.5974115
682.75	0.5962215
682.83	0.5955315
682.92	0.5938315
683	0.5915415
683.09	0.5895015
683.17	0.5864515
683.25	0.5833915
683.34	0.5820315
683.42	0.5842215
683.5	0.5846415
683.59	0.5851415
683.67	0.5864015
683.75	0.5877515
683.84	0.5869015
683.92	0.5854515
684	0.5868015
684.09	0.5870415
684.17	0.5851715
684.25	0.5857615
684.34	0.5837215
684.42	0.5805015
684.5	0.5798115
684.59	0.5815815
684.67	0.5799715
684.75	0.5790315
684.83	0.5783415
684.92	0.5769815
685	0.5755415
685.09	0.5745115
685.17	0.5740815
685.25	0.5727215
685.34	0.5732215
685.42	0.5739715
685.5	0.5762515
685.59	0.5771815
685.67	0.5764915
685.76	0.5757215
685.84	0.5769015
685.92	0.5762115
686.01	0.5748515
686.09	0.5767115
686.17	0.5802515
686.25	0.5816915
686.34	0.5793915
686.42	0.5789615
686.5	0.5795515
686.59	0.5768315
686.67	0.5751315
686.76	0.5740215
686.84	0.5714815
686.92	0.5696915
687.01	0.5682515
687.09	0.5712915
687.17	0.5731415
687.25	0.5735615
687.33	0.5741415
687.42	0.5713415
687.5	0.5681215
687.58	0.5687915
687.67	0.5668315
687.75	0.5665715
687.83	0.5659715
687.92	0.5631715
688	0.5622315
688.09	0.5636615
688.17	0.5654315
688.25	0.5658515
688.34	0.5657615
688.42	0.5664315
688.5	0.5624415
688.58	0.5612515
688.67	0.5628515
688.75	0.5634415
688.84	0.5639415
688.92	0.5624915
689	0.5575715
689.08	0.5555415
689.17	0.5557015
689.25	0.5558615
689.34	0.5592415
689.42	0.5595715
689.5	0.5605815
689.58	0.5615015
689.66	0.5582815
689.75	0.5547115
689.83	0.5517515
689.92	0.5511515
690	0.5552815
690.08	0.5562915
690.17	0.5501115
690.25	0.5490015
690.34	0.5561015
690.42	0.5593915
690.5	0.5585415
690.59	0.5565015
690.67	0.5567515
690.76	0.5551315
690.84	0.5564815
690.92	0.5593515
691	0.5552015
691.09	0.5526515
691.17	0.5528115
691.25	0.5518715
691.34	0.5526315
691.42	0.5544015
691.51	0.5548115
691.59	0.5539615
691.67	0.5549715
691.76	0.5553815
691.84	0.5549515
691.92	0.5534215
692.01	0.5557815
692.09	0.5552715
692.17	0.5547515
692.26	0.5533915
692.34	0.5509315
692.42	0.5525315
692.51	0.5539615
692.59	0.5539515
692.67	0.5547915
692.76	0.5508115
692.84	0.5523215
692.92	0.5535015
693.01	0.5518815
693.09	0.5526415
693.18	0.5500915
693.25	0.5500915
693.34	0.5485515
693.42	0.5476215
693.51	0.5492215
693.59	0.5539515
693.67	0.5541115
693.76	0.5508915
693.84	0.5475815
693.92	0.5496015
694.01	0.5531515
694.09	0.5516215
694.18	0.5517815
694.26	0.5525315
694.34	0.5488915
694.42	0.5471915
694.51	0.5481115
694.59	0.5499715
694.67	0.5483515
694.76	0.5489315
694.84	0.5506215
694.92	0.5512115
695.01	0.5495915
695.09	0.5506815
695.17	0.5497415
695.26	0.5472815
695.34	0.5475315
695.42	0.5479515
695.51	0.5462415
695.59	0.5434415
695.67	0.5427615
695.75	0.5433515
695.84	0.5442715
695.92	0.5464615
696	0.5483215
696.09	0.5489015
696.17	0.5495715
696.26	0.5493915
696.34	0.5472715
696.42	0.5472615
696.51	0.5471715
696.59	0.5453915
696.67	0.5441115
696.76	0.5468915
696.84	0.5476515
696.92	0.5466315
697.01	0.5464515
697.09	0.5461015
697.17	0.5440615
697.25	0.5442315
697.34	0.5453215
697.42	0.5471715
697.5	0.5462415
697.59	0.5435215
697.67	0.5405515
697.75	0.5411415
697.84	0.5461215
697.92	0.5477215
698	0.5437415
698.09	0.5426315
698.17	0.5435515
698.25	0.5451515
698.33	0.5440515
698.42	0.5441215
698.5	0.5429315
698.59	0.5436815
698.67	0.5464715
698.75	0.5452815
698.84	0.5431515
698.92	0.5450115
699.01	0.5438215
699.09	0.5437215
699.17	0.5458315
699.25	0.5482815
699.33	0.5453915
699.42	0.5430215
699.5	0.5455515
699.59	0.5464715
699.67	0.5468015
699.75	0.5444315
699.84	0.5428115
699.92	0.5437315
700	0.5441515
700.09	0.5459215
700.17	0.5432015
700.26	0.5410015
700.34	0.5440415
700.42	0.5468215
700.5	0.5449515
700.59	0.5431715
700.67	0.5395215
700.75	0.5426415
700.84	0.5469515
700.92	0.5474515
701.01	0.5441415
701.09	0.5407515
701.17	0.5416815
701.26	0.5423415
701.34	0.5428515
701.43	0.5439415
701.51	0.5446115
701.59	0.5451915
701.67	0.5435815
701.75	0.5401915
701.84	0.5345915
701.92	0.5335715
702.01	0.5390615
702.09	0.5406615
702.18	0.5382015
702.26	0.5397215
702.34	0.5425015
702.43	0.5459615
702.51	0.5443515
702.6	0.5442615
702.68	0.5440815
702.76	0.5421315
702.84	0.5442315
702.93	0.5438915
703.01	0.5393115
703.1	0.5374415
703.18	0.5441215
703.26	0.5490215
703.35	0.5499415
703.43	0.5475715
703.51	0.5463815
703.6	0.5460315
703.68	0.5473815
703.76	0.5457615
703.85	0.5441415
703.93	0.5436315
704.01	0.5470915
704.09	0.5515715
704.18	0.5520715
704.26	0.5502015
704.35	0.5475715
704.43	0.5435815
704.51	0.5445115
704.6	0.5463615
704.68	0.5475415
704.76	0.5494815
704.85	0.5494715
704.93	0.5493815
705.02	0.5457315
705.1	0.5473315
705.18	0.5464815
705.27	0.5438515
705.35	0.5433315
705.43	0.5457815
705.52	0.5439115
705.6	0.5414515
705.68	0.5417815
705.77	0.5413515
705.85	0.5414315
705.93	0.5416715
706.02	0.5422615
706.1	0.5421715
706.18	0.5455415
706.27	0.5432515
706.35	0.5409615
706.43	0.5407815
706.51	0.5405215
706.6	0.5411915
706.68	0.5436415
706.76	0.5427815
706.85	0.5410015
706.93	0.5423515
707.01	0.5472515
707.1	0.5464815
707.18	0.5463015
707.26	0.5454515
707.35	0.5418815
707.43	0.5419615
707.51	0.5442415
707.59	0.5460915
707.68	0.5428715
707.76	0.5369415
707.85	0.5374415
707.93	0.5395515
708.01	0.5436015
708.1	0.5436015
708.18	0.5437615
708.26	0.5447615
708.35	0.5437415
708.43	0.5460215
708.51	0.5461015
708.6	0.5444815
708.68	0.5427015
708.76	0.5396415
708.85	0.5373515
708.93	0.5388715
709.01	0.5397115
709.1	0.5391015
709.18	0.5402815
709.26	0.5419715
709.35	0.5395115
709.43	0.5363715
709.51	0.5367015
709.6	0.5359315
709.68	0.5371115
709.76	0.5371015
709.85	0.5378515
709.93	0.5393715
710.01	0.5395315
710.09	0.5386815
710.18	0.5348615
710.26	0.5334215
710.35	0.5352715
710.43	0.5362815
710.52	0.5345815
710.6	0.5343215
710.69	0.5338015
710.77	0.5337115
710.85	0.5309115
710.94	0.5282815
711.02	0.5287815
711.1	0.5304615
711.18	0.5296115
711.26	0.5293515
711.35	0.5280715
711.43	0.5267915
711.51	0.5263615
711.6	0.5276315
711.68	0.5293115
711.76	0.5287115
711.85	0.5280315
711.93	0.5261615
712.01	0.5250515
712.1	0.5272415
712.18	0.5277415
712.26	0.5285015
712.35	0.5315415
712.43	0.5309415
712.51	0.5258515
712.6	0.5269415
712.68	0.5269415
712.77	0.5258315
712.85	0.5258215
712.93	0.5254815
713.02	0.5240315
713.1	0.5251215
713.18	0.5296815
713.27	0.5331515
713.36	0.5315315
713.44	0.5309315
713.52	0.5301615
713.6	0.5236415
713.69	0.5238815
713.77	0.5282815
713.85	0.5321615
713.94	0.5313115
714.02	0.5282615
714.1	0.5257115
714.19	0.5257015
714.27	0.5251015
714.36	0.5198515
714.44	0.5191615
714.51	0.5228815
714.6	0.5249915
714.69	0.5256615
714.77	0.5237015
714.85	0.5231915
714.93	0.5241115
715.01	0.5249515
715.1	0.5223215
715.18	0.5208715
715.26	0.5222215
715.35	0.5245815
715.43	0.5295715
715.51	0.5305815
715.6	0.5249815
715.68	0.5228615
715.77	0.5270015
715.86	0.5266515
715.93	0.5274115
716.02	0.5309515
716.1	0.5281515
716.19	0.5285715
716.27	0.5294115
716.36	0.5272915
716.44	0.5250815
716.52	0.5238815
716.61	0.5259115
716.69	0.5272515
716.77	0.5269115
716.85	0.5254615
716.94	0.5290915
717.02	0.5346715
717.1	0.5348315
717.19	0.5352515
717.27	0.5311015
717.35	0.5310015
717.43	0.5310015
717.52	0.5337015
717.61	0.5322515
717.69	0.5296215
717.77	0.5275015
717.85	0.5291015
717.94	0.5301915
718.02	0.5263715
718.11	0.5267915
